LASERINDEX	WAVENUMBER	SPWNPOWER	SpWNQuant	SpQuantNorm	Wavelength	SpecWL	FluAbsRatio
Integer Laser Wavelength	cm^-1	nW/cm-1	photon/s/cm^-1	Norm intensity	nm	W/nm	Experimental Ratio
783	11340.38471	1.35683E-5	60244.64795	0.02608	881.8043	1.74494E-13	3.20497E-12
	11323.51253	1.37846E-5	61296.03709	0.02654	883.1182	1.76748E-13	3.26449E-12
	11306.68664	1.35978E-5	60555.47954	0.02621	884.4324	1.73836E-13	3.22705E-12
	11289.90941	1.34415E-5	59948.66617	0.02595	885.7467	1.71329E-13	3.17948E-12
	11273.17808	1.35645E-5	60586.86766	0.02623	887.0613	1.72384E-13	3.20919E-12
	11256.495	1.30622E-5	58429.57899	0.02529	888.376	1.65509E-13	3.11501E-12
	11239.85743	1.21986E-5	54647.23962	0.02366	889.691	1.5411E-13	2.93981E-12
	11223.26646	1.17006E-5	52494.16256	0.02272	891.0062	1.47383E-13	2.83254E-12
	11206.72314	1.12087E-5	50361.23895	0.0218	892.3215	1.4077E-13	2.70941E-12
	11190.22476	1.06954E-5	48125.6967	0.02083	893.6371	1.33928E-13	2.58122E-12
	11173.77239	1.02016E-5	45971.77146	0.0199	894.9529	1.27371E-13	2.45082E-12
	11157.36583	9.49558E-6	42852.93868	0.01855	896.2689	1.18207E-13	2.26348E-12
	11141.00614	8.93794E-6	40395.55707	0.01749	897.585	1.10939E-13	2.11559E-12
	11124.69065	8.72823E-6	39505.61051	0.0171	898.9014	1.08019E-13	2.05745E-12
	11108.4204	8.63121E-6	39123.71814	0.01694	900.218	1.06507E-13	2.03848E-12
	11092.19399	8.60248E-6	39050.52436	0.01691	901.5349	1.05842E-13	2.0423E-12
	11076.01491	8.72031E-6	39643.25598	0.01716	902.8518	1.06979E-13	2.07455E-12
	11059.87807	8.76234E-6	39892.45224	0.01727	904.1691	1.07182E-13	2.07655E-12
	11043.78696	8.82797E-6	40249.7884	0.01742	905.4865	1.07671E-13	2.08728E-12
	11027.74017	9.04928E-6	41318.86718	0.01789	906.8041	1.10049E-13	2.13581E-12
	11011.73752	9.32259E-6	42628.63093	0.01845	908.1219	1.13044E-13	2.17763E-12
	10995.77883	9.91301E-6	45394.1715	0.01965	909.4399	1.19855E-13	2.29208E-12
	10979.86271	1.06699E-5	48931.23666	0.02118	910.7582	1.28634E-13	2.45187E-12
	10963.9914	1.15572E-5	53076.91532	0.02298	912.0766	1.38928E-13	2.6303E-12
	10948.16231	1.26677E-5	58260.75197	0.02522	913.3953	1.51837E-13	2.8639E-12
	10932.37767	1.37836E-5	63484.65511	0.02748	914.7141	1.64737E-13	3.11504E-12
	10916.6349	1.49967E-5	69171.68357	0.02994	916.0332	1.7872E-13	3.36278E-12
	10900.93503	1.63511E-5	75527.23305	0.0327	917.3525	1.94301E-13	3.60787E-12
	10885.27906	1.73297E-5	80162.87421	0.0347	918.6719	2.05339E-13	3.76162E-12
	10869.66446	1.73461E-5	80353.9299	0.03479	919.9916	2.04944E-13	3.70979E-12
	10854.09224	1.68762E-5	78289.27409	0.03389	921.3115	1.98821E-13	3.58724E-12
	10838.56339	1.66489E-5	77345.53749	0.03348	922.6315	1.95582E-13	3.54878E-12
	10823.0754	1.65148E-5	76832.4295	0.03326	923.9518	1.93453E-13	3.53161E-12
	10807.62928	1.60931E-5	74977.52369	0.03246	925.2723	1.87976E-13	3.44129E-12
	10792.22485	1.5367E-5	71696.47534	0.03104	926.593	1.78982E-13	3.27732E-12
	10776.86195	1.44623E-5	67572.03545	0.02925	927.9139	1.67967E-13	3.06892E-12
	10761.54041	1.36353E-5	63798.64562	0.02762	929.235	1.57912E-13	2.87021E-12
	10746.26006	1.32203E-5	61944.67292	0.02682	930.5563	1.52671E-13	2.76478E-12
	10731.01959	1.30824E-5	61385.92048	0.02657	931.8779	1.50651E-13	2.73529E-12
	10715.82114	1.30677E-5	61403.78592	0.02658	933.1996	1.50055E-13	2.73349E-12
	10700.66339	1.31555E-5	61903.92515	0.0268	934.5215	1.50636E-13	2.7308E-12
	10685.54617	1.30916E-5	61690.269	0.02671	935.8436	1.49481E-13	2.68143E-12
	10670.4682	1.3017E-5	61425.32389	0.02659	937.166	1.4821E-13	2.6269E-12
	10655.43158	1.33778E-5	63217.01393	0.02737	938.4885	1.51889E-13	2.66279E-12
	10640.43388	1.43116E-5	67725.05296	0.02932	939.8113	1.62034E-13	2.81953E-12
	10625.47722	1.56137E-5	73990.64607	0.03203	941.1342	1.76279E-13	3.04225E-12
	10610.55916	1.71267E-5	81274.96885	0.03518	942.4574	1.92819E-13	3.28589E-12
	10595.68069	1.87255E-5	88986.92491	0.03852	943.7808	2.10229E-13	3.52535E-12
	10580.84277	2.04293E-5	97219.48518	0.04209	945.1043	2.28714E-13	3.76691E-12
	10566.043	2.2876E-5	109015.32634	0.04719	946.4281	2.5539E-13	4.12751E-12
	10551.28234	2.62903E-5	125461.61484	0.05431	947.7521	2.92689E-13	4.63562E-12
	10536.56176	3.0618E-5	146318.33207	0.06334	949.0762	3.39918E-13	5.26028E-12
	10521.87888	3.60046E-5	172300.2831	0.07459	950.4006	3.98607E-13	6.0322E-12
	10507.23465	4.18862E-5	200725.88224	0.08689	951.7252	4.62432E-13	6.88239E-12
	10492.62893	4.79723E-5	230211.41054	0.09966	953.05	5.28152E-13	7.72416E-12
	10478.06046	5.53462E-5	265966.80245	0.11514	954.3751	6.07644E-13	8.64111E-12
	10463.5313	6.43343E-5	309588.53141	0.13402	955.7003	7.04367E-13	9.69268E-12
	10449.04128	7.38356E-5	355803.18352	0.15403	957.0256	8.06155E-13	1.07746E-11
	10434.58698	8.30487E-5	400754.37247	0.17349	958.3513	9.04239E-13	1.17398E-11
	10420.17153	9.08731E-5	439117.81747	0.1901	959.6771	9.867E-13	1.24343E-11
	10405.7937	9.68466E-5	468630.0473	0.20287	961.0031	1.04866E-12	1.28598E-11
	10391.45332	1.02536E-4	496846.72698	0.21509	962.3293	1.10721E-12	1.32408E-11
	10377.14919	1.08211E-4	525066.68664	0.2273	963.6558	1.16527E-12	1.35967E-11
	10362.8833	1.12799E-4	548084.18242	0.23727	964.9824	1.21135E-12	1.37947E-11
	10348.65338	1.16653E-4	567588.20538	0.24571	966.3093	1.24929E-12	1.38901E-11
	10334.46034	1.19431E-4	581901.14337	0.25191	967.6364	1.27553E-12	1.38477E-11
	10320.30512	1.21965E-4	595065.98186	0.25761	968.9636	1.29904E-12	1.37665E-11
	10306.18543	1.27688E-4	623839.04001	0.27006	970.2911	1.35627E-12	1.39787E-11
	10292.10327	1.36581E-4	668201.51855	0.28927	971.6187	1.44677E-12	1.44432E-11
	10278.05637	1.47609E-4	723138.96986	0.31305	972.9466	1.55932E-12	1.50277E-11
	10264.04565	1.61494E-4	792244.49699	0.34296	974.2747	1.70135E-12	1.58234E-11
	10250.07098	1.75702E-4	863119.38705	0.37365	975.603	1.846E-12	1.66271E-11
	10236.13222	1.88879E-4	929110.90861	0.40221	976.9315	1.97904E-12	1.73108E-11
	10222.23026	2.04445E-4	1.00705E6	0.43596	978.2601	2.13633E-12	1.82943E-11
	10208.36185	2.21285E-4	1.09148E6	0.47251	979.5891	2.30603E-12	1.95088E-11
	10194.52998	2.3475E-4	1.15947E6	0.50194	980.9182	2.43972E-12	2.04384E-11
	10180.73347	2.42356E-4	1.19866E6	0.5189	982.2475	2.51196E-12	2.0937E-11
	10166.97218	2.40474E-4	1.19096E6	0.51557	983.577	2.48571E-12	2.07726E-11
	10153.24599	2.29541E-4	1.13835E6	0.4928	984.9067	2.3663E-12	1.99033E-11
	10139.55475	2.16319E-4	1.07423E6	0.46504	986.2366	2.22399E-12	1.8895E-11
	10125.89731	2.04272E-4	1.01577E6	0.43973	987.5668	2.09447E-12	1.80654E-11
	10112.27558	1.92437E-4	958207.97135	0.41481	988.8971	1.96782E-12	1.73037E-11
	10098.68842	1.80813E-4	901539.43968	0.39028	990.2276	1.84399E-12	1.6541E-11
	10085.13569	1.68651E-4	842029.75797	0.36452	991.5583	1.71535E-12	1.5686E-11
	10071.61624	1.5611E-4	780463.41894	0.33786	992.8893	1.58354E-12	1.47591E-11
	10058.13097	1.46035E-4	731074.01613	0.31648	994.2205	1.47738E-12	1.39671E-11
	10044.68075	1.38237E-4	692959.35751	0.29998	995.5518	1.39475E-12	1.3332E-11
	10031.26344	1.31251E-4	658821.51759	0.28521	996.8834	1.32073E-12	1.2837E-11
	10017.88092	1.25029E-4	628425.97135	0.27205	998.2151	1.25476E-12	1.24504E-11
	10004.53105	1.18064E-4	594213.44227	0.25724	999.5471	1.18171E-12	1.19362E-11
	9991.21772	1.10672E-4	557752.26993	0.24145	1000.879	1.10478E-12	1.139E-11
	9977.92882	1.05234E-4	531049.31709	0.22989	1002.212	1.0477E-12	1.1045E-11
	9964.68516	1.01233E-4	511540.37955	0.22145	1003.544	1.00519E-12	1.07766E-11
	9951.4667	9.74709E-5	493183.81617	0.2135	1004.877	9.65271E-13	1.05348E-11
	9938.28326	9.40102E-5	476304.26999	0.20619	1006.21	9.28534E-13	1.03704E-11
	9925.13471	8.99818E-5	456498.12395	0.19762	1007.543	8.86395E-13	1.0149E-11
	9912.01108	8.55608E-5	434644.33827	0.18816	1008.877	8.40618E-13	9.84606E-12
	9898.93191	8.23588E-5	418931.15594	0.18136	1010.21	8.07025E-13	9.65063E-12
	9885.87743	8.00859E-5	407907.55303	0.17658	1011.544	7.82684E-13	9.53671E-12
	9872.85734	7.80081E-5	397848.47198	0.17223	1012.878	7.60371E-13	9.41848E-12
	9859.87151	7.64442E-5	390385.8975	0.169	1014.212	7.43168E-13	9.3642E-12
	9846.91009	7.47522E-5	382247.74384	0.16548	1015.547	7.2481E-13	9.24532E-12
	9833.99237	7.24812E-5	371121.56567	0.16066	1016.881	7.00947E-13	9.02805E-12
	9821.09886	7.12579E-5	365337.0946	0.15816	1018.216	6.87311E-13	8.97526E-12
	9808.23912	7.16054E-5	367599.73538	0.15913	1019.551	6.88855E-13	9.09571E-12
	9795.40341	7.27517E-5	373974.14523	0.16189	1020.887	6.98052E-13	9.28969E-12
	9782.61082	7.43747E-5	382816.78096	0.16572	1022.222	7.11762E-13	9.5288E-12
	9769.84206	7.55364E-5	389304.75807	0.16853	1023.558	7.20994E-13	9.64894E-12
	9757.10659	7.62506E-5	393498.25602	0.17035	1024.894	7.25914E-13	9.70199E-12
	9744.40428	7.83595E-5	404908.5057	0.17529	1026.23	7.4405E-13	9.99188E-12
	9731.73499	8.17743E-5	423104.16401	0.18316	1027.566	7.74457E-13	1.04497E-11
	9719.09861	8.47391E-5	439014.0235	0.19005	1028.902	8.00453E-13	1.08196E-11
	9706.48558	8.70135E-5	451383.27466	0.19541	1030.239	8.19805E-13	1.11519E-11
	9693.90525	8.80857E-5	457538.11662	0.19807	1031.576	8.27757E-13	1.13908E-11
	9681.35748	8.75342E-5	455262.75906	0.19708	1032.913	8.20446E-13	1.14603E-11
	9668.84216	8.65486E-5	450719.72002	0.19512	1034.25	8.09113E-13	1.14962E-11
	9656.34982	8.5395E-5	445287.27285	0.19277	1035.588	7.96267E-13	1.14753E-11
	9643.88973	8.37045E-5	437035.92901	0.18919	1036.926	7.7849E-13	1.13631E-11
	9631.46175	8.16366E-5	426789.19261	0.18476	1038.264	7.57302E-13	1.12112E-11
	9619.06576	7.82798E-5	409767.53992	0.17739	1039.602	7.24295E-13	1.09089E-11
	9606.70164	7.37455E-5	386528.99992	0.16733	1040.94	6.80588E-13	1.04662E-11
	9594.36005	7.00119E-5	367431.72847	0.15906	1042.279	6.44472E-13	1.00764E-11
	9582.05932	6.74034E-5	354195.78104	0.15333	1043.617	6.1887E-13	9.80648E-12
	9569.78093	6.52881E-5	343520.48189	0.14871	1044.956	5.97913E-13	9.62455E-12
	9557.53397	6.35364E-5	334732.3348	0.14491	1046.295	5.80383E-13	9.46738E-12
	9545.3092	6.11093E-5	322357.5271	0.13955	1047.635	5.56784E-13	9.19521E-12
	9533.12475	5.80998E-5	306873.82219	0.13285	1048.974	5.28013E-13	8.83646E-12
	9520.9623	5.61666E-5	297042.07782	0.12859	1050.314	5.09143E-13	8.66647E-12
	9508.83085	5.50215E-5	291357.38147	0.12613	1051.654	4.97493E-13	8.68562E-12
	9496.73028	5.37512E-5	284993.5769	0.12337	1052.994	4.84771E-13	8.64262E-12
	9484.65146	5.25048E-5	278739.24968	0.12067	1054.335	4.72326E-13	8.47589E-12
	9472.61231	5.10152E-5	271175.82907	0.11739	1055.675	4.57762E-13	8.2623E-12
	9460.59473	4.92841E-5	262306.81562	0.11355	1057.016	4.41107E-13	8.05479E-12
	9448.60761	4.8096E-5	256307.63839	0.11096	1058.357	4.29382E-13	7.91164E-12
	9436.65082	4.75351E-5	253639.87482	0.1098	1059.698	4.23302E-13	7.88148E-12
	9424.71537	4.68396E-5	250245.10207	0.10833	1061.04	4.16054E-13	7.87796E-12
	9412.81894	4.57844E-5	244917.05943	0.10603	1062.381	4.05656E-13	7.81473E-12
	9400.94367	4.47064E-5	239452.28905	0.10366	1063.723	3.95105E-13	7.7179E-12
	9389.09832	4.36271E-5	233966.15605	0.10128	1065.065	3.84595E-13	7.58376E-12
	9377.28278	4.26832E-5	229192.56904	0.09922	1066.407	3.75328E-13	7.42747E-12
	9365.48818	4.19235E-5	225396.79956	0.09757	1067.75	3.67721E-13	7.30347E-12
	9353.73195	4.13227E-5	222445.98313	0.0963	1069.092	3.61542E-13	7.29997E-12
	9341.99648	4.09475E-5	220703.29809	0.09554	1070.435	3.57361E-13	7.37052E-12
	9330.29041	4.01658E-5	216761.36188	0.09384	1071.778	3.49661E-13	7.23292E-12
	9318.61365	3.88658E-5	210008.72193	0.09091	1073.121	3.37497E-13	6.92061E-12
	9306.95742	3.79582E-5	205361.56563	0.0889	1074.465	3.28792E-13	6.75533E-12
	9295.3303	3.75547E-5	203432.59694	0.08807	1075.809	3.24485E-13	6.75203E-12
	9283.74083	3.71534E-5	201509.6767	0.08723	1077.152	3.20217E-13	6.75615E-12
	9272.17162	3.67636E-5	199644.48965	0.08643	1078.496	3.16068E-13	6.77182E-12
	9260.62263	3.60767E-5	196158.82147	0.08492	1079.841	3.09391E-13	6.74991E-12
	9249.11093	3.50888E-5	191024.63013	0.0827	1081.185	3.00171E-13	6.58187E-12
	9237.61928	3.43384E-5	187171.92062	0.08103	1082.53	2.93022E-13	6.39278E-12
	9226.15615	3.37566E-5	184229.46794	0.07975	1083.875	2.87343E-13	6.37253E-12
	9214.72144	3.34722E-5	182903.98459	0.07918	1085.22	2.84216E-13	6.42882E-12
	9203.31503	3.33788E-5	182619.76959	0.07906	1086.565	2.82722E-13	6.39191E-12
	9191.92838	3.29937E-5	180735.94825	0.07824	1087.911	2.78768E-13	6.35706E-12
	9180.5783	3.24509E-5	177982.75862	0.07705	1089.256	2.73506E-13	6.33118E-12
	9169.24781	3.21811E-5	176720.97457	0.0765	1090.602	2.70563E-13	6.27104E-12
	9157.94525	3.20463E-5	176197.85127	0.07628	1091.948	2.68766E-13	6.2091E-12
	9146.66215	3.18533E-5	175352.50468	0.07591	1093.295	2.66489E-13	6.13347E-12
	9135.41517	3.18687E-5	175653.56112	0.07604	1094.641	2.65963E-13	6.12687E-12
	9124.18749	3.1795E-5	175462.71612	0.07596	1095.988	2.64696E-13	6.12572E-12
	9112.98737	3.15229E-5	174175.03523	0.0754	1097.335	2.61787E-13	6.03683E-12
	9101.81472	3.15979E-5	174803.65501	0.07567	1098.682	2.61766E-13	5.99978E-12
	9090.66943	3.2016E-5	177333.81234	0.07677	1100.029	2.64581E-13	6.02736E-12
	9079.54315	3.2493E-5	180196.72631	0.07801	1101.377	2.67866E-13	5.9875E-12
	9068.44408	3.28548E-5	182426.22717	0.07897	1102.725	2.70187E-13	5.89305E-12
	9057.37211	3.28961E-5	182878.40033	0.07917	1104.073	2.69866E-13	5.82946E-12
	9046.32715	3.30776E-5	184112.22116	0.0797	1105.421	2.70694E-13	5.85399E-12
	9035.30908	3.36718E-5	187648.25067	0.08123	1106.769	2.74886E-13	5.94249E-12
	9024.30969	3.43336E-5	191569.45178	0.08293	1108.118	2.79607E-13	6.02637E-12
	9013.33703	3.52521E-5	196933.4699	0.08525	1109.467	2.86389E-13	6.13112E-12
	9002.39104	3.64024E-5	203606.96091	0.08814	1110.816	2.95016E-13	6.27312E-12
	8991.47159	3.71123E-5	207829.89393	0.08997	1112.165	3.0004E-13	6.32266E-12
	8980.5786	3.7472E-5	210098.89209	0.09095	1113.514	3.02215E-13	6.26563E-12
	8969.70393	3.84348E-5	215758.13885	0.0934	1114.864	3.09229E-13	6.29689E-12
	8958.85556	3.99722E-5	224660.54674	0.09726	1116.214	3.20822E-13	6.39504E-12
	8948.0334	4.12613E-5	232186.02668	0.10051	1117.564	3.30368E-13	6.46344E-12
	8937.23736	4.19792E-5	236511.31732	0.10239	1118.914	3.35306E-13	6.51199E-12
	8926.46733	4.19724E-5	236758.01754	0.10249	1120.264	3.34444E-13	6.43749E-12
	8915.71529	4.1563E-5	234731.56169	0.10162	1121.615	3.30384E-13	6.29998E-12
	8904.98911	4.15272E-5	234811.72206	0.10165	1122.966	3.29306E-13	6.28085E-12
	8894.28871	4.18818E-5	237101.54149	0.10264	1124.317	3.3132E-13	6.32409E-12
	8883.614	4.20832E-5	238528.16683	0.10326	1125.668	3.32115E-13	6.29477E-12
	8872.957	4.19789E-5	238222.72911	0.10313	1127.02	3.30497E-13	6.15814E-12
	8862.3334	4.13626E-5	235006.55612	0.10173	1128.371	3.24865E-13	5.94902E-12
	8851.72737	4.01425E-5	228347.88614	0.09885	1129.723	3.14529E-13	5.72716E-12
	8841.1467	3.91366E-5	222892.31358	0.09649	1131.075	3.05915E-13	5.60065E-12
	8830.59129	3.85966E-5	220079.86289	0.09527	1132.427	3.00974E-13	5.53351E-12
	8820.05327	3.81787E-5	217956.95206	0.09435	1133.78	2.97005E-13	5.4502E-12
	8809.54038	3.79589E-5	216960.9362	0.09392	1135.133	2.94592E-13	5.42258E-12
	8799.06026	3.73559E-5	213768.25447	0.09254	1136.485	2.89222E-13	5.34123E-12
	8788.5896	3.62225E-5	207529.44387	0.08984	1137.839	2.7978E-13	5.14586E-12
	8778.15153	3.55683E-5	204023.79519	0.08832	1139.192	2.74075E-13	5.00815E-12
	8767.73823	3.52946E-5	202694.18775	0.08775	1140.545	2.71321E-13	4.9537E-12
	8757.34194	3.48989E-5	200659.68786	0.08687	1141.899	2.67643E-13	4.90657E-12
	8746.97027	3.46211E-5	199298.28214	0.08628	1143.253	2.64884E-13	4.83301E-12
	8736.62314	3.41114E-5	196596.74815	0.08511	1144.607	2.60367E-13	4.7152E-12
	8726.30046	3.32424E-5	191815.22797	0.08304	1145.961	2.53135E-13	4.59895E-12
	8715.99455	3.26104E-5	188390.98589	0.08155	1147.316	2.47737E-13	4.51117E-12
	8705.71295	3.22307E-5	186417.42959	0.0807	1148.671	2.44275E-13	4.45151E-12
	8695.45558	3.1882E-5	184617.83759	0.07992	1150.026	2.41063E-13	4.43907E-12
	8685.22235	3.16492E-5	183485.84641	0.07943	1151.381	2.3874E-13	4.44545E-12
	8675.01319	3.08739E-5	179201.96116	0.07758	1152.736	2.32345E-13	4.3771E-12
	8664.82048	2.92086E-5	169735.07109	0.07348	1154.092	2.19295E-13	4.17677E-12
	8654.65919	2.8205E-5	164095.42197	0.07104	1155.447	2.11264E-13	4.01816E-12
	8644.51423	2.80524E-5	163399.03375	0.07074	1156.803	2.09629E-13	3.97377E-12
	8634.39303	2.7721E-5	161658.51886	0.06998	1158.159	2.06668E-13	3.94203E-12
	8624.28807	2.74447E-5	160234.5755	0.06937	1159.516	2.04129E-13	3.9445E-12
	8614.21414	2.6988E-5	157752.47582	0.06829	1160.872	2.00264E-13	3.88703E-12
	8604.15632	2.61669E-5	153131.29358	0.06629	1162.229	1.93717E-13	3.74099E-12
	8594.12196	2.56433E-5	150242.73995	0.06504	1163.586	1.89399E-13	3.68724E-12
	8584.11098	2.54525E-5	149298.74388	0.06463	1164.943	1.87552E-13	3.73068E-12
	8574.11594	2.50337E-5	147013.25458	0.06364	1166.301	1.84036E-13	3.7286E-12
	8564.15149	2.43615E-5	143231.97495	0.06201	1167.658	1.78678E-13	3.65542E-12
	8554.20285	2.36313E-5	139100.39949	0.06022	1169.016	1.7292E-13	3.56674E-12
	8544.2773	2.28294E-5	134536.2607	0.05824	1170.374	1.66665E-13	3.4708E-12
	8534.37475	2.23196E-5	131684.7286	0.05701	1171.732	1.62566E-13	3.41749E-12
	8524.48787	2.21401E-5	130777.19501	0.05661	1173.091	1.60885E-13	3.41386E-12
	8514.63112	2.18775E-5	129375.74913	0.05601	1174.449	1.5861E-13	3.40739E-12
	8504.7899	2.16197E-5	127999.29438	0.05541	1175.808	1.56379E-13	3.40148E-12
	8494.9714	2.13448E-5	126517.5618	0.05477	1177.167	1.54034E-13	3.36504E-12
	8485.17555	2.08448E-5	123696.34373	0.05355	1178.526	1.50079E-13	3.27919E-12
	8475.39508	2.0371E-5	121024.34288	0.05239	1179.886	1.46329E-13	3.20021E-12
	8465.63713	2.00046E-5	118984.75081	0.05151	1181.246	1.43367E-13	3.14171E-12
	8455.90878	1.98241E-5	118046.47809	0.0511	1182.605	1.41747E-13	3.1077E-12
	8446.18849	1.99774E-5	119096.73081	0.05156	1183.966	1.42515E-13	3.10915E-12
	8436.49764	1.98198E-5	118292.77622	0.05121	1185.326	1.41067E-13	3.08593E-12
	8426.829	1.91615E-5	114494.6539	0.04957	1186.686	1.36068E-13	3.03028E-12
	8417.17541	1.85777E-5	111134.02249	0.04811	1188.047	1.31621E-13	2.95209E-12
	8407.54392	1.80988E-5	108392.9402	0.04692	1189.408	1.27934E-13	2.86518E-12
	8397.93444	1.78369E-5	106946.60265	0.0463	1190.769	1.25795E-13	2.86646E-12
	8388.34691	1.78681E-5	107256.42492	0.04643	1192.13	1.25728E-13	2.92228E-12
	8378.77422	1.76488E-5	106061.07036	0.04591	1193.492	1.23902E-13	2.89908E-12
	8369.23036	1.70588E-5	102632.04233	0.04443	1194.853	1.19486E-13	2.83308E-12
	8359.70122	1.66934E-5	100548.39502	0.04353	1196.215	1.16661E-13	2.78841E-12
	8350.19377	1.66346E-5	100308.26777	0.04342	1197.577	1.15986E-13	2.77734E-12
	8340.70095	1.65043E-5	99635.69049	0.04313	1198.94	1.14816E-13	2.8141E-12
	8331.23664	1.63531E-5	98834.87506	0.04279	1200.302	1.13506E-13	2.85232E-12
	8321.78685	1.60925E-5	97370.79502	0.04215	1201.665	1.11444E-13	2.8245E-12
	8312.35848	1.56178E-5	94605.54764	0.04095	1203.028	1.07912E-13	2.73889E-12
	8302.95145	1.5197E-5	92160.8001	0.0399	1204.391	1.04767E-13	2.65989E-12
	8293.56569	1.48711E-5	90286.48133	0.03909	1205.754	1.02288E-13	2.60298E-12
	8284.19425	1.46673E-5	89149.90353	0.03859	1207.118	1.00659E-13	2.56402E-12
	8274.84398	1.45543E-5	88563.03111	0.03834	1208.482	9.96578E-14	2.53474E-12
	8265.51478	1.42119E-5	86577.08743	0.03748	1209.846	9.70939E-14	2.49415E-12
	8256.2066	1.37726E-5	83995.78381	0.03636	1211.21	9.38811E-14	2.4537E-12
	8246.91936	1.35968E-5	83016.81137	0.03594	1212.574	9.24742E-14	2.445E-12
	8237.64621	1.35056E-5	82552.52663	0.03574	1213.939	9.16472E-14	2.44466E-12
	8228.39388	1.33073E-5	81432.07293	0.03525	1215.304	9.0099E-14	2.42315E-12
	8219.16232	1.30984E-5	80243.56726	0.03474	1216.669	8.84855E-14	2.40198E-12
	8209.95145	1.28764E-5	78972.30133	0.03419	1218.034	8.67912E-14	2.35967E-12
	8200.76119	1.26682E-5	77782.35046	0.03367	1219.399	8.51967E-14	2.29969E-12
	8191.58478	1.245E-5	76528.26494	0.03313	1220.765	8.3542E-14	2.2478E-12
	8182.43558	1.22821E-5	75580.42907	0.03272	1222.13	8.22312E-14	2.22374E-12
	8173.30012	1.22516E-5	75476.99014	0.03267	1223.496	8.18439E-14	2.24921E-12
	8164.17836	1.21546E-5	74963.34056	0.03245	1224.863	8.1015E-14	2.24258E-12
	8155.08359	1.18734E-5	73310.90185	0.03174	1226.229	7.89647E-14	2.17009E-12
	8146.00243	1.14075E-5	70512.31726	0.03052	1227.596	7.56969E-14	2.07933E-12
