WAVENUMBER	INTENSITY	A1	A2	B
1/cm	Counts/s	SC+M Total Fit	SC lorentzian	M BWF
				
	5 pts SG smooth of INTENSITY"Counts/s"			
-229.22621	-49.49376	4.11212	0.0037	4.10842
-227.68269	-49.08543	4.11233	0.00371	4.10863
-226.13958	-49.1566	4.11255	0.00371	4.10883
-224.59686	-49.88245	4.11276	0.00372	4.10904
-223.05454	-50.52175	4.11298	0.00373	4.10925
-221.51263	-50.32602	4.11319	0.00373	4.10946
-219.97111	-49.20029	4.11341	0.00374	4.10967
-218.43	-48.96605	4.11362	0.00375	4.10987
-216.88928	-50.23487	4.11384	0.00375	4.11008
-215.34896	-51.95705	4.11405	0.00376	4.11029
-213.80905	-52.89323	4.11427	0.00377	4.1105
-212.26953	-54.21979	4.11448	0.00377	4.11071
-210.73041	-55.96555	4.1147	0.00378	4.11092
-209.19169	-56.42467	4.11492	0.00378	4.11113
-207.65337	-55.39518	4.11514	0.00379	4.11134
-206.11545	-54.602	4.11535	0.0038	4.11156
-204.57793	-55.50753	4.11557	0.0038	4.11177
-203.0408	-57.35074	4.11579	0.00381	4.11198
-201.50408	-59.47157	4.11601	0.00382	4.11219
-199.96775	-60.38752	4.11623	0.00382	4.1124
-198.43182	-60.71481	4.11645	0.00383	4.11262
-196.89629	-60.76584	4.11667	0.00384	4.11283
-195.36116	-61.3	4.11689	0.00384	4.11304
-193.82642	-61.57116	4.11711	0.00385	4.11326
-192.29208	-62.4987	4.11733	0.00386	4.11347
-190.75814	-64.03117	4.11755	0.00386	4.11369
-189.2246	-65.1175	4.11777	0.00387	4.1139
-187.69146	-63.8263	4.11799	0.00388	4.11412
-186.15871	-61.31715	4.11822	0.00388	4.11433
-184.62636	-60.91292	4.11844	0.00389	4.11455
-183.09441	-64.04591	4.11866	0.0039	4.11476
-181.56285	-66.90493	4.11888	0.0039	4.11498
-180.03169	-66.17156	4.11911	0.00391	4.1152
-178.50093	-63.3328	4.11933	0.00392	4.11541
-176.97057	-62.55765	4.11956	0.00392	4.11563
-175.4406	-63.5067	4.11978	0.00393	4.11585
-173.91102	-63.8278	4.12001	0.00394	4.11607
-172.38185	-62.83522	4.12023	0.00395	4.11629
-170.85307	-63.16716	4.12046	0.00395	4.1165
-169.32468	-65.48857	4.12068	0.00396	4.11672
-167.7967	-67.98585	4.12091	0.00397	4.11694
-166.2691	-68.05845	4.12114	0.00397	4.11716
-164.74191	-66.49385	4.12136	0.00398	4.11738
-163.21511	-65.05393	4.12159	0.00399	4.1176
-161.6887	-64.3571	4.12182	0.00399	4.11782
-160.16269	-63.23049	4.12205	0.004	4.11805
-158.63708	-62.50268	4.12227	0.00401	4.11827
-157.11186	-63.04787	4.1225	0.00401	4.11849
-155.58703	-64.79367	4.12273	0.00402	4.11871
-154.0626	-66.72927	4.12296	0.00403	4.11893
-152.53857	-69.41126	4.12319	0.00404	4.11916
-151.01493	-72.37724	4.12342	0.00404	4.11938
-149.49168	-74.00073	4.12365	0.00405	4.1196
-147.96883	-72.6237	4.12388	0.00406	4.11983
-146.44638	-69.74885	4.12412	0.00406	4.12005
-144.92431	-67.88105	4.12435	0.00407	4.12028
-143.40264	-67.69458	4.12458	0.00408	4.1205
-141.88137	-66.33789	4.12481	0.00409	4.12073
-140.36049	-63.61695	4.12505	0.00409	4.12095
-138.84	-63.46645	4.12528	0.0041	4.12118
-137.31991	-67.8914	4.12551	0.00411	4.1214
-135.80021	-72.06133	4.12575	0.00411	4.12163
-134.28091	-72.56152	4.12598	0.00412	4.12186
-132.76199	-72.32907	4.12622	0.00413	4.12209
-131.24347	-75.22961	4.12645	0.00414	4.12231
-129.72535	-78.99897	4.12669	0.00414	4.12254
-128.20761	-80.68235	4.12692	0.00415	4.12277
-126.69027	-79.49285	4.12716	0.00416	4.123
-125.17333	-77.56755	4.12739	0.00417	4.12323
-123.65677	-75.47164	4.12763	0.00417	4.12346
-122.14061	-74.11434	4.12787	0.00418	4.12369
-120.62484	-73.8174	4.12811	0.00419	4.12392
-119.10946	-76.70687	4.12834	0.0042	4.12415
-117.59447	-82.44751	4.12858	0.0042	4.12438
-116.07988	-87.56283	4.12882	0.00421	4.12461
-114.56568	-87.27743	4.12906	0.00422	4.12484
-113.05187	-83.04426	4.1293	0.00423	4.12508
-111.53845	-80.38576	4.12954	0.00423	4.12531
-110.02542	-82.26581	4.12978	0.00424	4.12554
-108.51279	-84.86931	4.13002	0.00425	4.12577
-107.00055	-83.90665	4.13026	0.00426	4.12601
-105.48869	-79.3266	4.1305	0.00426	4.12624
-103.97723	-73.75484	4.13075	0.00427	4.12648
-102.46616	-70.43928	4.13099	0.00428	4.12671
-100.95548	-71.00796	4.13123	0.00429	4.12695
-99.4452	-74.77565	4.13148	0.00429	4.12718
-97.9353	-79.06769	4.13172	0.0043	4.12742
-96.42579	-82.90594	4.13196	0.00431	4.12765
-94.91667	-86.35144	4.13221	0.00432	4.12789
-93.40795	-88.97223	4.13245	0.00433	4.12813
-91.89961	-90.69066	4.1327	0.00433	4.12836
-90.39167	-93.89586	4.13294	0.00434	4.1286
-88.88411	-101.02992	4.13319	0.00435	4.12884
-87.37694	-109.56047	4.13343	0.00436	4.12908
-85.87017	-112.5508	4.13368	0.00436	4.12932
-84.36378	-108.80754	4.13393	0.00437	4.12956
-82.85779	-103.74431	4.13418	0.00438	4.1298
-81.35218	-101.54089	4.13442	0.00439	4.13004
-79.84696	-101.98563	4.13467	0.0044	4.13028
-78.34213	-106.23072	4.13492	0.0044	4.13052
-76.83769	-115.50962	4.13517	0.00441	4.13076
-75.33364	-125.91481	4.13542	0.00442	4.131
-73.82998	-133.28194	4.13567	0.00443	4.13124
-72.32671	-135.40757	4.13592	0.00444	4.13148
-70.82382	-134.71001	4.13617	0.00444	4.13173
-69.32133	-132.74871	4.13642	0.00445	4.13197
-67.81922	-134.23913	4.13667	0.00446	4.13221
-66.3175	-139.11595	4.13693	0.00447	4.13246
-64.81617	-145.52939	4.13718	0.00448	4.1327
-63.31523	-144.66113	4.13743	0.00448	4.13295
-61.81467	-133.44342	4.13768	0.00449	4.13319
-60.31451	-117.40989	4.13794	0.0045	4.13344
-58.81473	-110.31256	4.13819	0.00451	4.13368
-57.31534	-115.63778	4.13845	0.00452	4.13393
-55.81633	-123.21852	4.1387	0.00453	4.13418
-54.31772	-125.23487	4.13896	0.00453	4.13442
-52.81949	-126.27458	4.13921	0.00454	4.13467
-51.32165	-132.23015	4.13947	0.00455	4.13492
-49.82419	-132.10061	4.13973	0.00456	4.13517
-48.32713	-117.88344	4.13998	0.00457	4.13542
-46.83045	-101.65108	4.14024	0.00458	4.13566
-45.33415	-106.3837	4.1405	0.00458	4.13591
-43.83825	-128.80228	4.14076	0.00459	4.13616
-42.34273	-151.59476	4.14102	0.0046	4.13641
-40.84759	-162.30545	4.14127	0.00461	4.13666
-39.35284	-167.56934	4.14153	0.00462	4.13692
-37.85848	-167.34868	4.14179	0.00463	4.13717
-36.36451	-165.33739	4.14205	0.00464	4.13742
-34.87092	-159.81194	4.14232	0.00464	4.13767
-33.37771	-158.70149	4.14258	0.00465	4.13792
-31.8849	-168.94588	4.14284	0.00466	4.13818
-30.39247	-203.0587	4.1431	0.00467	4.13843
-28.90042	-255.80848	4.14336	0.00468	4.13869
-27.40876	-294.86334	4.14363	0.00469	4.13894
-25.91748	-276.84287	4.14389	0.0047	4.1392
-24.42659	-192.29845	4.14415	0.0047	4.13945
-22.93609	-94.60627	4.14442	0.00471	4.13971
-21.44597	-39.58553	4.14468	0.00472	4.13996
-19.95623	-34.431	4.14495	0.00473	4.14022
-18.46688	-42.37447	4.14522	0.00474	4.14048
-16.97792	-45.23509	4.14548	0.00475	4.14073
-15.48933	-43.96099	4.14575	0.00476	4.14099
-14.00114	-44.07102	4.14602	0.00477	4.14125
-12.51332	-44.07102	4.14628	0.00477	4.14151
-11.0259	-44.07102	4.14655	0.00478	4.14177
-9.53885	-44.07102	4.14682	0.00479	4.14203
-8.05219	-44.07102	4.14709	0.0048	4.14229
-6.56592	-44.07102	4.14736	0.00481	4.14255
-5.08002	-44.07102	4.14763	0.00482	4.14281
-3.59452	-44.07102	4.1479	0.00483	4.14307
-2.10939	-44.07102	4.14817	0.00484	4.14333
-0.62465	-44.07102	4.14844	0.00485	4.14359
0.85971	-44.07102	4.14871	0.00486	4.14386
2.34368	-44.07102	4.14898	0.00486	4.14412
3.82728	-44.07102	4.14926	0.00487	4.14438
5.31049	-44.07102	4.14953	0.00488	4.14465
6.79331	-44.07102	4.1498	0.00489	4.14491
8.27575	-44.07102	4.15008	0.0049	4.14518
9.75782	-44.07102	4.15035	0.00491	4.14544
11.23949	-44.07102	4.15063	0.00492	4.14571
12.72079	-44.07102	4.1509	0.00493	4.14597
14.2017	-44.07102	4.15118	0.00494	4.14624
15.68223	-44.07102	4.15146	0.00495	4.14651
17.16238	-44.07102	4.15173	0.00496	4.14678
18.64215	-44.07102	4.15201	0.00497	4.14704
20.12153	-44.07102	4.15229	0.00498	4.14731
21.60053	-44.07102	4.15257	0.00499	4.14758
23.07916	-44.07102	4.15285	0.005	4.14785
24.5574	-44.07102	4.15312	0.005	4.14812
26.03525	-44.07102	4.1534	0.00501	4.14839
27.51273	-44.07102	4.15368	0.00502	4.14866
28.98983	-44.07102	4.15397	0.00503	4.14893
30.46654	-44.07102	4.15425	0.00504	4.1492
31.94287	-44.07102	4.15453	0.00505	4.14948
33.41882	-44.07102	4.15481	0.00506	4.14975
34.8944	-44.07102	4.15509	0.00507	4.15002
36.36959	-44.07102	4.15538	0.00508	4.1503
37.8444	-44.07102	4.15566	0.00509	4.15057
39.31883	-44.07102	4.15595	0.0051	4.15084
40.79288	-44.07102	4.15623	0.00511	4.15112
42.26654	-44.07102	4.15651	0.00512	4.15139
43.73983	-44.07102	4.1568	0.00513	4.15167
45.21274	-44.07102	4.15709	0.00514	4.15195
46.68527	-44.07102	4.15737	0.00515	4.15222
48.15742	-44.07102	4.15766	0.00516	4.1525
49.62919	-44.07102	4.15795	0.00517	4.15278
51.10058	-44.07102	4.15824	0.00518	4.15306
52.57159	-44.07102	4.15853	0.00519	4.15334
54.04222	-44.07102	4.15881	0.0052	4.15362
55.51247	-44.07102	4.1591	0.00521	4.1539
56.98234	-44.07102	4.15939	0.00522	4.15418
58.45183	-44.07102	4.15969	0.00523	4.15446
59.92094	-44.07102	4.15998	0.00524	4.15474
61.38968	-44.07102	4.16027	0.00525	4.15502
62.85803	-44.07102	4.16056	0.00526	4.1553
64.32601	-44.07102	4.16085	0.00527	4.15558
65.79361	-44.07102	4.16115	0.00528	4.15587
67.26083	-44.07102	4.16144	0.00529	4.15615
68.72767	-44.07102	4.16174	0.0053	4.15643
70.19414	-44.07102	4.16203	0.00531	4.15672
71.66022	-44.07102	4.16233	0.00532	4.157
73.12593	-44.07102	4.16262	0.00533	4.15729
74.59126	-44.07102	4.16292	0.00534	4.15758
76.05621	-44.07102	4.16322	0.00535	4.15786
77.52078	-44.07102	4.16351	0.00536	4.15815
78.98498	-44.07102	4.16381	0.00537	4.15844
80.4488	-44.07102	4.16411	0.00538	4.15873
81.91224	-44.07102	4.16441	0.00539	4.15901
83.3753	-44.07102	4.16471	0.0054	4.1593
84.83799	-44.07102	4.16501	0.00542	4.15959
86.3003	-44.07102	4.16531	0.00543	4.15988
87.76223	-44.07102	4.16561	0.00544	4.16017
89.22379	-44.07102	4.16591	0.00545	4.16047
90.68497	-44.07102	4.16622	0.00546	4.16076
92.14577	-44.07102	4.16652	0.00547	4.16105
93.6062	-44.07102	4.16682	0.00548	4.16134
95.06625	-42.69447	4.16713	0.00549	4.16164
96.52592	-59.71617	4.16743	0.0055	4.16193
97.98522	-9.12199	4.16774	0.00551	4.16222
99.44414	35.51047	4.16804	0.00552	4.16252
100.90269	-47.58759	4.16835	0.00553	4.16281
102.36086	-494.6841	4.16865	0.00554	4.16311
103.81865	-1393.96088	4.16896	0.00556	4.16341
105.27607	-2760.87027	4.16927	0.00557	4.1637
106.73311	-3776.86324	4.16958	0.00558	4.164
108.18978	-3392.11965	4.16989	0.00559	4.1643
109.64607	-1810.61659	4.1702	0.0056	4.1646
111.10198	-463.66555	4.17051	0.00561	4.1649
112.55752	-129.94327	4.17082	0.00562	4.1652
114.01269	-200.63959	4.17113	0.00563	4.1655
115.46748	-178.52838	4.17144	0.00564	4.1658
116.9219	-81.14141	4.17175	0.00565	4.1661
118.37594	-77.5844	4.17207	0.00567	4.1664
119.82961	-85.53355	4.17238	0.00568	4.1667
121.2829	-91.33889	4.17269	0.00569	4.16701
122.73582	-87.6895	4.17301	0.0057	4.16731
124.18836	-84.70532	4.17332	0.00571	4.16761
125.64053	-84.44067	4.17364	0.00572	4.16792
127.09232	-85.73541	4.17396	0.00573	4.16822
128.54375	-83.61637	4.17427	0.00575	4.16853
129.99479	-79.05775	4.17459	0.00576	4.16883
131.44547	-76.4975	4.17491	0.00577	4.16914
132.89577	-77.98425	4.17523	0.00578	4.16945
134.34569	-81.40189	4.17555	0.00579	4.16976
135.79525	-83.81879	4.17587	0.0058	4.17006
137.24443	-83.84663	4.17619	0.00581	4.17037
138.69323	-81.60323	4.17651	0.00583	4.17068
140.14167	-79.26549	4.17683	0.00584	4.17099
141.58973	-77.77939	4.17715	0.00585	4.1713
143.03741	-77.46795	4.17748	0.00586	4.17161
144.48473	-77.68577	4.1778	0.00587	4.17193
145.93167	-77.76991	4.17812	0.00589	4.17224
147.37824	-77.63924	4.17845	0.0059	4.17255
148.82444	-77.37657	4.17877	0.00591	4.17286
150.27026	-77.63135	4.1791	0.00592	4.17318
151.71571	-77.82431	4.17943	0.00593	4.17349
153.16079	-77.40456	4.17975	0.00594	4.17381
154.6055	-75.40193	4.18008	0.00596	4.17412
156.04984	-73.32389	4.18041	0.00597	4.17444
157.4938	-72.59318	4.18074	0.00598	4.17476
158.93739	-72.3286	4.18107	0.00599	4.17508
160.38061	-70.15524	4.1814	0.00601	4.17539
161.82346	-67.17275	4.18173	0.00602	4.17571
163.26594	-65.20348	4.18206	0.00603	4.17603
164.70804	-63.37203	4.18239	0.00604	4.17635
166.14978	-60.19547	4.18273	0.00605	4.17667
167.59114	-58.51384	4.18306	0.00607	4.17699
169.03214	-60.27047	4.18339	0.00608	4.17731
170.47276	-62.82476	4.18373	0.00609	4.17764
171.91301	-62.58734	4.18406	0.0061	4.17796
173.35289	-61.48958	4.1844	0.00612	4.17828
174.7924	-61.80151	4.18474	0.00613	4.17861
176.23154	-62.9961	4.18507	0.00614	4.17893
177.67031	-62.44822	4.18541	0.00615	4.17926
179.1087	-60.195	4.18575	0.00617	4.17958
180.54673	-56.82374	4.18609	0.00618	4.17991
181.98439	-53.59493	4.18643	0.00619	4.18024
183.42168	-50.93575	4.18677	0.0062	4.18056
184.8586	-49.35027	4.18711	0.00622	4.18089
186.29514	-49.05668	4.18745	0.00623	4.18122
187.73132	-50.89225	4.18779	0.00624	4.18155
189.16713	-53.83229	4.18814	0.00626	4.18188
190.60257	-55.0848	4.18848	0.00627	4.18221
192.03764	-52.98617	4.18882	0.00628	4.18254
193.47234	-49.8376	4.18917	0.00629	4.18288
194.90667	-48.15256	4.18952	0.00631	4.18321
196.34064	-47.84717	4.18986	0.00632	4.18354
197.77423	-47.27028	4.19021	0.00633	4.18388
199.20746	-46.3488	4.19056	0.00635	4.18421
200.64031	-45.7415	4.1909	0.00636	4.18454
202.0728	-45.72478	4.19125	0.00637	4.18488
203.50492	-45.42117	4.1916	0.00639	4.18522
204.93667	-44.25163	4.19195	0.0064	4.18555
206.36805	-42.69376	4.1923	0.00641	4.18589
207.79907	-41.84198	4.19266	0.00643	4.18623
209.22971	-41.53762	4.19301	0.00644	4.18657
210.65999	-40.62528	4.19336	0.00645	4.18691
212.0899	-38.90646	4.19372	0.00647	4.18725
213.51944	-37.41549	4.19407	0.00648	4.18759
214.94862	-37.13657	4.19443	0.00649	4.18793
216.37742	-37.4151	4.19478	0.00651	4.18827
217.80586	-36.52183	4.19514	0.00652	4.18862
219.23393	-33.96136	4.19549	0.00653	4.18896
220.66164	-31.18625	4.19585	0.00655	4.1893
222.08898	-29.59246	4.19621	0.00656	4.18965
223.51595	-28.24503	4.19657	0.00658	4.18999
224.94255	-26.41042	4.19693	0.00659	4.19034
226.36878	-24.40387	4.19729	0.0066	4.19069
227.79465	-23.20921	4.19765	0.00662	4.19104
229.22016	-22.46814	4.19801	0.00663	4.19138
230.64529	-22.13371	4.19838	0.00665	4.19173
232.07006	-21.94495	4.19874	0.00666	4.19208
233.49447	-22.13045	4.19911	0.00667	4.19243
234.9185	-21.93617	4.19947	0.00669	4.19278
236.34217	-21.44436	4.19984	0.0067	4.19313
237.76548	-20.55947	4.2002	0.00672	4.19349
239.18842	-20.28801	4.20057	0.00673	4.19384
240.61099	-20.14542	4.20094	0.00674	4.19419
242.0332	-20.03575	4.20131	0.00676	4.19455
243.45504	-19.3255	4.20168	0.00677	4.1949
244.87652	-18.76938	4.20205	0.00679	4.19526
246.29763	-18.04796	4.20242	0.0068	4.19562
247.71837	-17.30392	4.20279	0.00682	4.19597
249.13875	-16.27419	4.20316	0.00683	4.19633
250.55877	-15.42485	4.20353	0.00685	4.19669
251.97842	-14.27489	4.20391	0.00686	4.19705
253.3977	-12.96023	4.20428	0.00687	4.19741
254.81662	-11.44114	4.20466	0.00689	4.19777
256.23518	-9.14794	4.20503	0.0069	4.19813
257.65337	-5.29489	4.20541	0.00692	4.19849
259.07119	-0.79159	4.20579	0.00693	4.19885
260.48865	3.34846	4.20617	0.00695	4.19922
261.90575	7.64402	4.20655	0.00696	4.19958
263.32248	12.00043	4.20692	0.00698	4.19995
264.73885	15.48752	4.20731	0.00699	4.20031
266.15486	18.18714	4.20769	0.00701	4.20068
267.5705	21.60755	4.20807	0.00702	4.20105
268.98578	24.89463	4.20845	0.00704	4.20141
270.40069	26.0629	4.20884	0.00705	4.20178
271.81524	23.97703	4.20922	0.00707	4.20215
273.22942	19.297	4.20961	0.00708	4.20252
274.64325	12.97495	4.20999	0.0071	4.20289
276.05671	6.44328	4.21038	0.00711	4.20326
277.4698	0.97401	4.21077	0.00713	4.20364
278.88254	-3.41709	4.21115	0.00715	4.20401
280.29491	-6.95555	4.21154	0.00716	4.20438
281.70691	-9.21016	4.21193	0.00718	4.20476
283.11856	-9.54986	4.21232	0.00719	4.20513
284.52984	-9.03753	4.21272	0.00721	4.20551
285.94076	-8.69763	4.21311	0.00722	4.20588
287.35131	-8.86333	4.2135	0.00724	4.20626
288.76151	-9.43861	4.21389	0.00726	4.20664
290.17134	-10.64137	4.21429	0.00727	4.20702
291.58081	-11.62949	4.21469	0.00729	4.2074
292.98992	-11.63666	4.21508	0.0073	4.20778
294.39866	-10.88311	4.21548	0.00732	4.20816
295.80705	-9.79931	4.21588	0.00733	4.20854
297.21507	-8.83739	4.21628	0.00735	4.20892
298.62273	-8.40543	4.21668	0.00737	4.20931
300.03002	-8.69603	4.21708	0.00738	4.20969
301.43696	-8.97522	4.21748	0.0074	4.21008
302.84354	-9.7856	4.21788	0.00742	4.21046
304.24975	-11.22568	4.21828	0.00743	4.21085
305.6556	-12.41759	4.21869	0.00745	4.21124
307.0611	-11.96838	4.21909	0.00746	4.21163
308.46623	-10.72841	4.2195	0.00748	4.21201
309.871	-9.77296	4.2199	0.0075	4.2124
311.2754	-9.34409	4.22031	0.00751	4.2128
312.67945	-8.67052	4.22072	0.00753	4.21319
314.08314	-7.88904	4.22113	0.00755	4.21358
315.48647	-7.81758	4.22154	0.00756	4.21397
316.88943	-8.58441	4.22195	0.00758	4.21437
318.29204	-8.94814	4.22236	0.0076	4.21476
319.69429	-8.33695	4.22277	0.00761	4.21516
321.09617	-7.86202	4.22318	0.00763	4.21555
322.4977	-8.40468	4.2236	0.00765	4.21595
323.89886	-8.99239	4.22401	0.00767	4.21635
325.29967	-8.93961	4.22443	0.00768	4.21675
326.70012	-8.76742	4.22484	0.0077	4.21715
328.1002	-8.72074	4.22526	0.00772	4.21755
329.49993	-7.8302	4.22568	0.00773	4.21795
330.8993	-6.60956	4.2261	0.00775	4.21835
332.29831	-6.49999	4.22652	0.00777	4.21875
333.69696	-7.64235	4.22694	0.00779	4.21916
335.09525	-8.42333	4.22736	0.0078	4.21956
336.49318	-8.39269	4.22779	0.00782	4.21996
337.89075	-7.9642	4.22821	0.00784	4.22037
339.28797	-7.70075	4.22863	0.00786	4.22078
340.68482	-7.45642	4.22906	0.00787	4.22119
342.08132	-7.13819	4.22949	0.00789	4.22159
343.47746	-6.49017	4.22991	0.00791	4.222
344.87323	-5.99948	4.23034	0.00793	4.22241
346.26866	-5.89503	4.23077	0.00794	4.22283
347.66372	-6.40598	4.2312	0.00796	4.22324
349.05842	-7.36	4.23163	0.00798	4.22365
350.45277	-8.45965	4.23206	0.008	4.22407
351.84676	-8.64571	4.2325	0.00802	4.22448
353.24039	-7.74147	4.23293	0.00804	4.2249
354.63366	-6.35819	4.23337	0.00805	4.22531
356.02658	-5.3071	4.2338	0.00807	4.22573
357.41914	-4.65935	4.23424	0.00809	4.22615
358.81134	-4.70225	4.23468	0.00811	4.22657
360.20318	-5.42616	4.23511	0.00813	4.22699
361.59467	-6.58082	4.23555	0.00815	4.22741
362.9858	-7.14183	4.23599	0.00816	4.22783
364.37657	-6.84377	4.23643	0.00818	4.22825
365.76698	-6.08006	4.23688	0.0082	4.22868
367.15704	-5.94462	4.23732	0.00822	4.2291
368.54674	-6.35704	4.23776	0.00824	4.22953
369.93609	-6.70929	4.23821	0.00826	4.22995
371.32507	-6.33478	4.23866	0.00828	4.23038
372.71371	-5.50683	4.2391	0.0083	4.23081
374.10198	-4.64077	4.23955	0.00831	4.23124
375.4899	-4.40114	4.24	0.00833	4.23167
376.87746	-5.01775	4.24045	0.00835	4.2321
378.26467	-6.14313	4.2409	0.00837	4.23253
379.65152	-6.73183	4.24135	0.00839	4.23296
381.03802	-6.56708	4.24181	0.00841	4.2334
382.42415	-6.1411	4.24226	0.00843	4.23383
383.80994	-5.8723	4.24272	0.00845	4.23427
385.19537	-5.72979	4.24317	0.00847	4.2347
386.58044	-5.8145	4.24363	0.00849	4.23514
387.96516	-6.35896	4.24409	0.00851	4.23558
389.34952	-6.97314	4.24455	0.00853	4.23602
390.73352	-7.20836	4.24501	0.00855	4.23646
392.11718	-6.9592	4.24547	0.00857	4.2369
393.50047	-6.96385	4.24593	0.00859	4.23734
394.88341	-7.58876	4.24639	0.00861	4.23778
396.266	-8.16699	4.24686	0.00863	4.23823
397.64823	-8.16118	4.24732	0.00865	4.23867
399.03011	-7.98683	4.24779	0.00867	4.23912
400.41164	-8.26311	4.24825	0.00869	4.23957
401.7928	-8.01293	4.24872	0.00871	4.24001
403.17362	-6.77492	4.24919	0.00873	4.24046
404.55408	-5.26819	4.24966	0.00875	4.24091
405.93418	-4.9916	4.25013	0.00877	4.24136
407.31394	-5.52036	4.25061	0.00879	4.24181
408.69334	-5.8655	4.25108	0.00881	4.24227
410.07238	-5.56811	4.25155	0.00883	4.24272
411.45107	-5.35623	4.25203	0.00885	4.24318
412.82941	-5.60697	4.25251	0.00887	4.24363
414.20739	-6.14451	4.25298	0.00889	4.24409
415.58502	-6.66498	4.25346	0.00892	4.24455
416.9623	-7.01644	4.25394	0.00894	4.24501
418.33922	-6.9206	4.25442	0.00896	4.24547
419.71579	-6.16061	4.25491	0.00898	4.24593
421.09201	-5.17885	4.25539	0.009	4.24639
422.46787	-5.00623	4.25587	0.00902	4.24685
423.84339	-5.40892	4.25636	0.00904	4.24732
425.21855	-5.58903	4.25685	0.00906	4.24778
426.59335	-5.03753	4.25733	0.00909	4.24825
427.96781	-4.58215	4.25782	0.00911	4.24871
429.34191	-4.83185	4.25831	0.00913	4.24918
430.71566	-6.03873	4.2588	0.00915	4.24965
432.08905	-7.38564	4.25929	0.00917	4.25012
433.4621	-7.45221	4.25979	0.0092	4.25059
434.83479	-6.77888	4.26028	0.00922	4.25106
436.20713	-6.68452	4.26078	0.00924	4.25154
