LASERINDEX	WAVENUMBER	SPWNPOWER	SpWNQuant	SpQuantNorm	Wavelength	SpecWL	FluAbsRatio
Integer Laser Wavelength	cm^-1	nW/cm-1	photon/s/cm^-1	Norm intensity	nm	W/nm	Experimental Ratio
636	11340.38471	5.27476E-6	23420.4666	0.01446	881.8043	6.78357E-14	1.77933E-13
	11323.51253	4.94199E-6	21975.65811	0.01357	883.1182	6.33672E-14	1.67352E-13
	11306.68664	4.69876E-6	20925.17268	0.01292	884.4324	6.00695E-14	1.59909E-13
	11289.90941	5.04993E-6	22522.46139	0.0139	885.7467	6.43675E-14	1.73357E-13
	11273.17808	5.32707E-6	23793.72752	0.01469	887.0613	6.76988E-14	1.85186E-13
	11256.495	5.2876E-6	23652.4534	0.0146	888.376	6.69985E-14	1.83861E-13
	11239.85743	5.38406E-6	24119.60703	0.01489	889.691	6.80193E-14	1.85517E-13
	11223.26646	5.21885E-6	23414.05326	0.01445	891.0062	6.57376E-14	1.795E-13
	11206.72314	4.6336E-6	20819.04791	0.01285	892.3215	5.81937E-14	1.59799E-13
	11190.22476	4.20675E-6	18929.03613	0.01169	893.6371	5.26774E-14	1.45594E-13
	11173.77239	4.02261E-6	18127.13656	0.01119	894.9529	5.02236E-14	1.3987E-13
	11157.36583	3.69012E-6	16653.25608	0.01028	896.2689	4.59371E-14	1.28222E-13
	11141.00614	3.13321E-6	14160.72809	0.00874	897.585	3.889E-14	1.08288E-13
	11124.69065	3.27403E-6	14818.86204	0.00915	898.9014	4.05189E-14	1.12963E-13
	11108.4204	4.14879E-6	18805.71817	0.01161	900.218	5.11948E-14	1.43576E-13
	11092.19399	4.29546E-6	19499.01013	0.01204	901.5349	5.28499E-14	1.48867E-13
	11076.01491	3.49574E-6	15891.93013	0.00981	902.8518	4.28851E-14	1.21222E-13
	11059.87807	3.18611E-6	14505.46141	0.00895	904.1691	3.89728E-14	1.10646E-13
	11043.78696	3.4674E-6	15809.06642	0.00976	905.4865	4.22902E-14	1.20426E-13
	11027.74017	3.46036E-6	15799.96452	0.00975	906.8041	4.20819E-14	1.20022E-13
	11011.73752	3.6976E-6	16907.69695	0.01044	908.1219	4.48365E-14	1.27818E-13
	10995.77883	3.88873E-6	17807.50064	0.01099	909.4399	4.70176E-14	1.34278E-13
	10979.86271	3.47373E-6	15930.14147	0.00983	910.7582	4.18784E-14	1.20155E-13
	10963.9914	3.39825E-6	15606.57258	0.00963	912.0766	4.08501E-14	1.17709E-13
	10948.16231	3.85808E-6	17743.9481	0.01095	913.3953	4.62438E-14	1.33895E-13
	10932.37767	4.13887E-6	19062.83114	0.01177	914.7141	4.94664E-14	1.43586E-13
	10916.6349	4.07923E-6	18815.27023	0.01162	916.0332	4.86134E-14	1.41443E-13
	10900.93503	3.97379E-6	18355.32386	0.01133	917.3525	4.72207E-14	1.37902E-13
	10885.27906	4.11515E-6	19035.62742	0.01175	918.6719	4.87602E-14	1.42516E-13
	10869.66446	4.33691E-6	20090.23048	0.0124	919.9916	5.12404E-14	1.49483E-13
	10854.09224	4.29953E-6	19945.65404	0.01231	921.3115	5.06533E-14	1.47497E-13
	10838.56339	4.24498E-6	19720.80555	0.01217	922.6315	4.98677E-14	1.45293E-13
	10823.0754	4.45075E-6	20706.33176	0.01278	923.9518	5.21356E-14	1.51906E-13
	10807.62928	4.6419E-6	21626.48512	0.01335	925.2723	5.42196E-14	1.57609E-13
	10792.22485	4.62104E-6	21560.03054	0.01331	926.593	5.38222E-14	1.56442E-13
	10776.86195	4.43827E-6	20736.84183	0.0128	927.9139	5.15465E-14	1.49775E-13
	10761.54041	4.22579E-6	19772.18832	0.01221	929.235	4.89392E-14	1.41757E-13
	10746.26006	4.26746E-6	19995.54338	0.01234	930.5563	4.92816E-14	1.42538E-13
	10731.01959	4.35852E-6	20451.21109	0.01263	931.8779	5.01905E-14	1.4505E-13
	10715.82114	4.2958E-6	20185.47824	0.01246	933.1996	4.93281E-14	1.42421E-13
	10700.66339	4.47075E-6	21037.30552	0.01299	934.5215	5.11919E-14	1.47788E-13
	10685.54617	4.61887E-6	21765.03233	0.01344	935.8436	5.27386E-14	1.52029E-13
	10670.4682	4.31659E-6	20369.39743	0.01257	937.166	4.91482E-14	1.41357E-13
	10655.43158	4.45719E-6	21062.56029	0.013	938.4885	5.06062E-14	1.45022E-13
	10640.43388	5.33037E-6	25224.2947	0.01557	939.8113	6.03499E-14	1.7222E-13
	10625.47722	5.95162E-6	28203.78031	0.01741	941.1342	6.71942E-14	1.91409E-13
	10610.55916	6.1082E-6	28986.47759	0.01789	942.4574	6.87685E-14	1.95579E-13
	10595.68069	6.12368E-6	29100.77553	0.01797	943.7808	6.87496E-14	1.94844E-13
	10580.84277	6.23831E-6	29687.06165	0.01833	945.1043	6.98405E-14	1.97165E-13
	10566.043	6.90598E-6	32910.43929	0.02032	946.4281	7.70992E-14	2.16919E-13
	10551.28234	8.07948E-6	38556.6219	0.0238	947.7521	8.99485E-14	2.51775E-13
	10536.56176	9.37077E-6	44781.36626	0.02765	949.0762	1.04034E-13	2.89258E-13
	10521.87888	1.0819E-5	51774.2801	0.03196	950.4006	1.19777E-13	3.31046E-13
	10507.23465	1.23593E-5	59227.87374	0.03656	951.7252	1.36449E-13	3.7501E-13
	10492.62893	1.39937E-5	67153.39162	0.04146	953.05	1.54064E-13	4.20991E-13
	10478.06046	1.60474E-5	77116.19884	0.04761	954.3751	1.76184E-13	4.79586E-13
	10463.5313	1.84296E-5	88686.76167	0.05475	955.7003	2.01778E-13	5.47122E-13
	10449.04128	2.09885E-5	101140.53438	0.06244	957.0256	2.29157E-13	6.17553E-13
	10434.58698	2.36075E-5	113918.61642	0.07033	958.3513	2.57039E-13	6.89137E-13
	10420.17153	2.57684E-5	124518.33505	0.07687	959.6771	2.79793E-13	7.46279E-13
	10405.7937	2.75016E-5	133077.05588	0.08215	961.0031	2.97789E-13	7.91073E-13
	10391.45332	2.90466E-5	140747.38227	0.08689	962.3293	3.13652E-13	8.31293E-13
	10377.14919	3.00692E-5	145903.1842	0.09007	963.6558	3.23801E-13	8.54647E-13
	10362.8833	3.07636E-5	149477.92318	0.09228	964.9824	3.30368E-13	8.68373E-13
	10348.65338	3.14178E-5	152866.78963	0.09437	966.3093	3.36468E-13	8.8118E-13
	10334.46034	3.17594E-5	154741.13855	0.09553	967.6364	3.39194E-13	8.84672E-13
	10320.30512	3.20022E-5	156137.63354	0.09639	968.9636	3.40851E-13	8.84496E-13
	10306.18543	3.26695E-5	159611.91449	0.09854	970.2911	3.47007E-13	8.92945E-13
	10292.10327	3.36073E-5	164418.16758	0.1015	971.6187	3.55993E-13	9.08158E-13
	10278.05637	3.4892E-5	170937.01438	0.10553	972.9466	3.68594E-13	9.35185E-13
	10264.04565	3.69902E-5	181463.37548	0.11203	974.2747	3.89694E-13	9.83661E-13
	10250.07098	3.909E-5	192025.87447	0.11855	975.603	4.10695E-13	1.03175E-12
	10236.13222	4.05266E-5	199354.09397	0.12307	976.9315	4.24631E-13	1.0627E-12
	10222.23026	4.21865E-5	207801.59592	0.12828	978.2601	4.40824E-13	1.09839E-12
	10208.36185	4.40761E-5	217404.36584	0.13421	979.5891	4.5932E-13	1.14045E-12
	10194.52998	4.55219E-5	224840.13777	0.1388	980.9182	4.73102E-13	1.17149E-12
	10180.73347	4.67269E-5	231104.46945	0.14267	982.2475	4.84312E-13	1.19708E-12
	10166.97218	4.70963E-5	233247.15963	0.14399	983.577	4.86822E-13	1.20291E-12
	10153.24599	4.64203E-5	230209.72597	0.14212	984.9067	4.78539E-13	1.18146E-12
	10139.55475	4.59353E-5	228112.35027	0.14082	986.2366	4.72264E-13	1.16335E-12
	10125.89731	4.56446E-5	226974.42669	0.14012	987.5668	4.68012E-13	1.14965E-12
	10112.27558	4.50528E-5	224333.46796	0.13849	988.8971	4.60702E-13	1.13158E-12
	10098.68842	4.44592E-5	221675.29174	0.13685	990.2276	4.5341E-13	1.11818E-12
	10085.13569	4.32335E-5	215853.42442	0.13326	991.5583	4.39727E-13	1.08998E-12
	10071.61624	4.11837E-5	205895.32137	0.12711	992.8893	4.17757E-13	1.03871E-12
	10058.13097	3.98078E-5	199283.42329	0.12303	994.2205	4.02719E-13	1.00264E-12
	10044.68075	3.93464E-5	197237.39971	0.12176	995.5518	3.96988E-13	9.90773E-13
	10031.26344	3.86943E-5	194228.03691	0.11991	996.8834	3.89366E-13	9.71007E-13
	10017.88092	3.78989E-5	190489.47121	0.1176	998.2151	3.80345E-13	9.43884E-13
	10004.53105	3.71839E-5	187145.19558	0.11553	999.5471	3.72176E-13	9.24033E-13
	9991.21772	3.63344E-5	183113.73225	0.11304	1000.879	3.62707E-13	9.03336E-13
	9977.92882	3.61077E-5	182213.45719	0.11249	1002.212	3.59485E-13	8.9524E-13
	9964.68516	3.66638E-5	185265.64146	0.11437	1003.544	3.64053E-13	9.07725E-13
	9951.4667	3.73287E-5	188875.78057	0.1166	1004.877	3.69672E-13	9.22907E-13
	9938.28326	3.82478E-5	193782.97636	0.11963	1006.21	3.77771E-13	9.43206E-13
	9925.13471	3.92546E-5	199147.64114	0.12294	1007.543	3.86691E-13	9.67917E-13
	9912.01108	4.02689E-5	204563.61705	0.12629	1008.877	3.95633E-13	9.91655E-13
	9898.93191	4.19449E-5	213359.24984	0.13172	1010.21	4.11013E-13	1.02832E-12
	9885.87743	4.45285E-5	226800.5302	0.14001	1011.544	4.3518E-13	1.0884E-12
	9872.85734	4.82367E-5	246011.76076	0.15187	1012.878	4.7018E-13	1.17538E-12
	9859.87151	5.31045E-5	271194.57486	0.16742	1014.212	5.16267E-13	1.28523E-12
	9846.91009	5.81806E-5	297508.21127	0.18366	1015.547	5.64129E-13	1.39874E-12
	9833.99237	6.34758E-5	325011.54982	0.20064	1016.881	6.13858E-13	1.51625E-12
	9821.09886	7.08383E-5	363185.76492	0.22421	1018.216	6.83264E-13	1.6776E-12
	9808.23912	8.0641E-5	413986.02883	0.25557	1019.551	7.75779E-13	1.89334E-12
	9795.40341	9.21669E-5	473776.41685	0.29248	1020.887	8.84341E-13	2.1417E-12
	9782.61082	1.05145E-4	541194.04027	0.3341	1022.222	1.00623E-12	2.41072E-12
	9769.84206	1.18349E-4	609954.8608	0.37655	1023.558	1.12964E-12	2.67575E-12
	9757.10659	1.3166E-4	679445.71636	0.41945	1024.894	1.25342E-12	2.93848E-12
	9744.40428	1.47291E-4	761097.43577	0.46986	1026.23	1.39857E-12	3.25358E-12
	9731.73499	1.64716E-4	852249.59519	0.52613	1027.566	1.55997E-12	3.61202E-12
	9719.09861	1.81301E-4	939281.51833	0.57986	1028.902	1.71259E-12	3.94899E-12
	9706.48558	1.96129E-4	1.01742E6	0.6281	1030.239	1.84785E-12	4.23906E-12
	9693.90525	2.06332E-4	1.07174E6	0.66163	1031.576	1.93894E-12	4.42959E-12
	9681.35748	2.10591E-4	1.09528E6	0.67616	1032.913	1.97384E-12	4.50243E-12
	9668.84216	2.13278E-4	1.11069E6	0.68568	1034.25	1.99386E-12	4.54941E-12
	9656.34982	2.14738E-4	1.11974E6	0.69126	1035.588	2.00233E-12	4.5718E-12
	9643.88973	2.11905E-4	1.10639E6	0.68303	1036.926	1.97082E-12	4.51301E-12
	9631.46175	2.05656E-4	1.07515E6	0.66374	1038.264	1.90777E-12	4.3904E-12
	9619.06576	1.96141E-4	1.02673E6	0.63384	1039.602	1.81482E-12	4.19244E-12
	9606.70164	1.84264E-4	965800.44117	0.59623	1040.94	1.70055E-12	3.93993E-12
	9594.36005	1.73326E-4	909640.28488	0.56156	1042.279	1.5955E-12	3.70797E-12
	9582.05932	1.63816E-4	860831.27599	0.53143	1043.617	1.50409E-12	3.5096E-12
	9569.78093	1.55004E-4	815570.27319	0.50349	1044.956	1.41954E-12	3.32972E-12
	9557.53397	1.4639E-4	771236.70753	0.47612	1046.295	1.33722E-12	3.15425E-12
	9545.3092	1.36611E-4	720635.69864	0.44488	1047.635	1.2447E-12	2.94651E-12
	9533.12475	1.26568E-4	668512.20285	0.4127	1048.974	1.15026E-12	2.72605E-12
	9520.9623	1.18825E-4	628417.7509	0.38795	1050.314	1.07714E-12	2.55215E-12
	9508.83085	1.1291E-4	597895.66688	0.36911	1051.654	1.02091E-12	2.41846E-12
	9496.73028	1.07187E-4	568315.83351	0.35085	1052.994	9.66699E-13	2.29683E-12
	9484.65146	1.01827E-4	540584.47648	0.33373	1054.335	9.16024E-13	2.18483E-12
	9472.61231	9.63277E-5	512038.10089	0.3161	1055.675	8.64352E-13	2.06549E-12
	9460.59473	9.06419E-5	482426.66761	0.29782	1057.016	8.11271E-13	1.94105E-12
	9448.60761	8.63498E-5	460165.92482	0.28408	1058.357	7.70898E-13	1.84826E-12
	9436.65082	8.30015E-5	442882.77542	0.27341	1059.698	7.39131E-13	1.7791E-12
	9424.71537	7.99911E-5	427360.36454	0.26383	1061.04	7.10523E-13	1.71336E-12
	9412.81894	7.77372E-5	415843.74567	0.25672	1062.381	6.88761E-13	1.65828E-12
	9400.94367	7.48133E-5	400707.84409	0.24737	1063.723	6.61183E-13	1.58984E-12
	9389.09832	7.11371E-5	381498.50053	0.23552	1065.065	6.2711E-13	1.50777E-12
	9377.28278	6.87601E-5	369215.78378	0.22793	1066.407	6.04631E-13	1.45848E-12
	9365.48818	6.72898E-5	361775.64461	0.22334	1067.75	5.90214E-13	1.42867E-12
	9353.73195	6.56733E-5	353528.52212	0.21825	1069.092	5.74591E-13	1.39069E-12
	9341.99648	6.40694E-5	345328.18183	0.21319	1070.435	5.59153E-13	1.35579E-12
	9330.29041	6.16068E-5	332471.29593	0.20525	1071.778	5.36314E-13	1.3061E-12
	9318.61365	5.84963E-5	316080.54208	0.19513	1073.121	5.07962E-13	1.23903E-12
	9306.95742	5.65729E-5	306070.71175	0.18895	1074.465	4.90032E-13	1.19511E-12
	9295.3303	5.55997E-5	301181.35638	0.18593	1075.809	4.80399E-13	1.17351E-12
	9283.74083	5.443E-5	295213.59538	0.18225	1077.152	4.69121E-13	1.14833E-12
	9272.17162	5.31783E-5	288784.42092	0.17828	1078.496	4.57191E-13	1.12007E-12
	9260.62263	5.13248E-5	279066.33644	0.17228	1079.841	4.40157E-13	1.07906E-12
	9249.11093	4.8785E-5	265587.00598	0.16396	1081.185	4.17336E-13	1.02361E-12
	9237.61928	4.72402E-5	257496.88235	0.15896	1082.53	4.03117E-13	9.88278E-13
	9226.15615	4.66715E-5	254713.14172	0.15725	1083.875	3.97277E-13	9.72415E-13
	9214.72144	4.57902E-5	250213.60704	0.15447	1085.22	3.88809E-13	9.49811E-13
	9203.31503	4.46076E-5	244053.49032	0.15066	1086.565	3.77831E-13	9.22004E-13
	9191.92838	4.32889E-5	237132.51745	0.14639	1087.911	3.65755E-13	8.91921E-13
	9180.5783	4.18444E-5	229503.00231	0.14168	1089.256	3.52677E-13	8.57553E-13
	9169.24781	4.09597E-5	224928.32478	0.13886	1090.602	3.44369E-13	8.33374E-13
	9157.94525	4.07733E-5	224180.88431	0.1384	1091.948	3.41957E-13	8.23867E-13
	9146.66215	4.03735E-5	222256.39981	0.13721	1093.295	3.3777E-13	8.1015E-13
	9135.41517	3.97802E-5	219260.02599	0.13536	1094.641	3.31989E-13	7.91304E-13
	9124.18749	3.94011E-5	217437.67625	0.13423	1095.988	3.28017E-13	7.7616E-13
	9112.98737	3.90141E-5	215566.66216	0.13308	1097.335	3.23999E-13	7.6205E-13
	9101.81472	3.90466E-5	216011.24537	0.13335	1098.682	3.23474E-13	7.55069E-13
	9090.66943	3.97143E-5	219974.36006	0.1358	1100.029	3.282E-13	7.59262E-13
	9079.54315	4.08237E-5	226396.10352	0.13976	1101.377	3.36543E-13	7.7253E-13
	9068.44408	4.21662E-5	234127.47772	0.14454	1102.725	3.46761E-13	7.88381E-13
	9057.37211	4.33327E-5	240898.47279	0.14872	1104.073	3.55484E-13	7.98591E-13
	9046.32715	4.46122E-5	248314.66504	0.1533	1105.421	3.65089E-13	8.09894E-13
	9035.30908	4.65187E-5	259241.91532	0.16004	1106.769	3.79764E-13	8.32219E-13
	9024.30969	4.88E-5	272286.82891	0.16809	1108.118	3.97418E-13	8.60417E-13
	9013.33703	5.15661E-5	288070.88528	0.17784	1109.467	4.18924E-13	8.95129E-13
	9002.39104	5.50955E-5	308161.70123	0.19024	1110.816	4.4651E-13	9.40616E-13
	8991.47159	5.80504E-5	325083.43523	0.20069	1112.165	4.69317E-13	9.72951E-13
	8980.5786	6.01662E-5	337340.65383	0.20826	1113.514	4.85245E-13	9.90917E-13
	8969.70393	6.32024E-5	354794.10866	0.21903	1114.864	5.08499E-13	1.02638E-12
	8958.85556	6.72154E-5	377778.56199	0.23322	1116.214	5.39479E-13	1.07555E-12
	8948.0334	7.10926E-5	400053.13198	0.24697	1117.564	5.69219E-13	1.11819E-12
	8937.23736	7.46378E-5	420510.17153	0.2596	1118.914	5.96164E-13	1.15556E-12
	8926.46733	7.71486E-5	435180.29649	0.26866	1120.264	6.14734E-13	1.17978E-12
	8915.71529	7.84878E-5	443268.07774	0.27365	1121.615	6.23899E-13	1.18746E-12
	8904.98911	8.04878E-5	455111.09102	0.28096	1122.966	6.38259E-13	1.20322E-12
	8894.28871	8.34592E-5	472480.24276	0.29168	1124.317	6.60232E-13	1.23145E-12
	8883.614	8.63229E-5	489279.75183	0.30205	1125.668	6.81248E-13	1.25737E-12
	8872.957	8.9175E-5	506052.43118	0.31241	1127.02	7.02069E-13	1.28512E-12
	8862.3334	9.09396E-5	516684.76835	0.31897	1128.371	7.14248E-13	1.30138E-12
	8851.72737	9.10636E-5	518009.2863	0.31979	1129.723	7.13511E-13	1.29441E-12
	8841.1467	9.15895E-5	521624.37906	0.32202	1131.075	7.15917E-13	1.2926E-12
	8830.59129	9.27663E-5	528958.1532	0.32655	1132.427	7.23386E-13	1.30173E-12
	8820.05327	9.3145E-5	531751.76664	0.32827	1133.78	7.24606E-13	1.29825E-12
	8809.54038	9.24403E-5	528358.62516	0.32618	1135.133	7.17411E-13	1.27696E-12
	8799.06026	9.0395E-5	517283.76842	0.31934	1136.485	6.99869E-13	1.24201E-12
	8788.5896	8.72292E-5	499762.50284	0.30853	1137.839	6.73753E-13	1.19552E-12
	8778.15153	8.46356E-5	485479.6076	0.29971	1139.192	6.52168E-13	1.15391E-12
	8767.73823	8.25821E-5	474263.12867	0.29278	1140.545	6.34836E-13	1.1186E-12
	8757.34194	8.01831E-5	461032.15414	0.28462	1141.899	6.14932E-13	1.08009E-12
	8746.97027	7.78303E-5	448034.83167	0.27659	1143.253	5.95476E-13	1.04539E-12
	8736.62314	7.46715E-5	430360.061	0.26568	1144.607	5.69957E-13	9.98587E-13
	8726.30046	7.05512E-5	407094.51694	0.25132	1145.961	5.37236E-13	9.36485E-13
	8715.99455	6.74759E-5	389809.3821	0.24065	1147.316	5.12604E-13	8.90967E-13
	8705.71295	6.56561E-5	379744.7506	0.23443	1148.671	4.97604E-13	8.62385E-13
	8695.45558	6.41758E-5	371620.40941	0.22942	1150.026	4.85239E-13	8.37778E-13
	8685.22235	6.29508E-5	364956.61261	0.2253	1151.381	4.74858E-13	8.18459E-13
	8675.01319	6.0768E-5	352716.35631	0.21775	1152.736	4.57315E-13	7.89954E-13
	8664.82048	5.77171E-5	335401.96622	0.20706	1154.092	4.33335E-13	7.5109E-13
	8654.65919	5.59771E-5	325672.54782	0.20105	1155.447	4.19286E-13	7.28006E-13
	8644.51423	5.5231E-5	321709.16883	0.19861	1156.803	4.12729E-13	7.18829E-13
	8634.39303	5.42449E-5	316335.37818	0.19529	1158.159	4.04411E-13	7.07132E-13
	8624.28807	5.3236E-5	310815.42214	0.19188	1159.516	3.9596E-13	6.92862E-13
	8614.21414	5.16999E-5	302200.10455	0.18656	1160.872	3.83637E-13	6.72748E-13
	8604.15632	4.95358E-5	289889.01556	0.17896	1162.229	3.66721E-13	6.4749E-13
	8594.12196	4.82761E-5	282847.01459	0.17461	1163.586	3.56562E-13	6.32744E-13
	8584.11098	4.81604E-5	282498.18371	0.1744	1164.943	3.54879E-13	6.31265E-13
	8574.11594	4.79495E-5	281588.65442	0.17384	1166.301	3.52503E-13	6.29479E-13
	8564.15149	4.71748E-5	277361.64248	0.17123	1167.658	3.46002E-13	6.21021E-13
	8554.20285	4.59859E-5	270686.16357	0.16711	1169.016	3.36499E-13	6.06456E-13
	8544.2773	4.45745E-5	262682.75518	0.16217	1170.374	3.25414E-13	5.89289E-13
	8534.37475	4.37539E-5	258146.21691	0.15936	1171.732	3.18684E-13	5.80675E-13
	8524.48787	4.3714E-5	258209.75953	0.1594	1173.091	3.17656E-13	5.82897E-13
	8514.63112	4.36305E-5	258015.07661	0.15928	1174.449	3.16316E-13	5.84285E-13
	8504.7899	4.32913E-5	256305.2489	0.15823	1175.808	3.13132E-13	5.80509E-13
	8494.9714	4.25263E-5	252067.22341	0.15561	1177.167	3.06889E-13	5.71958E-13
	8485.17555	4.15366E-5	246485.07313	0.15217	1178.526	2.99056E-13	5.62912E-13
	8475.39508	4.10969E-5	244157.30068	0.15073	1179.886	2.95208E-13	5.603E-13
	8465.63713	4.10187E-5	243973.66548	0.15062	1181.246	2.93969E-13	5.60171E-13
	8455.90878	4.10153E-5	244234.36139	0.15078	1182.605	2.93269E-13	5.61108E-13
	8446.18849	4.11208E-5	245144.31275	0.15134	1183.966	2.93348E-13	5.64978E-13
	8436.49764	4.08116E-5	243580.13083	0.15037	1185.326	2.90474E-13	5.63819E-13
	8426.829	3.99644E-5	238797.58176	0.14742	1186.686	2.83793E-13	5.55565E-13
	8417.17541	3.92336E-5	234699.42549	0.14489	1188.047	2.77965E-13	5.49428E-13
	8407.54392	3.87028E-5	231789.56804	0.14309	1189.408	2.73578E-13	5.45457E-13
	8397.93444	3.83198E-5	229758.39009	0.14184	1190.769	2.70251E-13	5.42483E-13
	8388.34691	3.83276E-5	230067.72032	0.14203	1192.13	2.6969E-13	5.46169E-13
	8378.77422	3.77587E-5	226911.63471	0.14008	1193.492	2.6508E-13	5.42997E-13
	8369.23036	3.6398E-5	218984.43218	0.13519	1194.853	2.54946E-13	5.27394E-13
	8359.70122	3.57228E-5	215166.83055	0.13283	1196.215	2.49647E-13	5.19444E-13
	8350.19377	3.58878E-5	216406.81318	0.1336	1197.577	2.5023E-13	5.23311E-13
	8340.70095	3.59122E-5	216800.69565	0.13384	1198.94	2.49832E-13	5.25855E-13
	8331.23664	3.55325E-5	214751.69413	0.13258	1200.302	2.46629E-13	5.22104E-13
	8321.78685	3.47805E-5	210445.49635	0.12992	1201.665	2.40862E-13	5.14447E-13
	8312.35848	3.38262E-5	204903.39091	0.1265	1203.028	2.33723E-13	5.05016E-13
	8302.95145	3.33339E-5	202150.12987	0.1248	1204.391	2.298E-13	5.0173E-13
	8293.56569	3.32449E-5	201839.0189	0.1246	1205.754	2.28669E-13	5.03671E-13
	8284.19425	3.30278E-5	200747.46105	0.12393	1207.118	2.26663E-13	5.02124E-13
	8274.84398	3.26268E-5	198533.94785	0.12256	1208.482	2.23405E-13	4.97871E-13
	8265.51478	3.19148E-5	194421.1404	0.12002	1209.846	2.18038E-13	4.89657E-13
	8256.2066	3.10015E-5	189070.40201	0.11672	1211.21	2.11322E-13	4.7839E-13
	8246.91936	3.05321E-5	186417.16448	0.11508	1212.574	2.07654E-13	4.73529E-13
	8237.64621	3.05224E-5	186567.47182	0.11518	1213.939	2.07121E-13	4.74234E-13
	8228.39388	3.03706E-5	185848.38899	0.11473	1215.304	2.05628E-13	4.73354E-13
	8219.16232	2.9995E-5	183756.17617	0.11344	1216.669	2.0263E-13	4.71051E-13
	8209.95145	2.94121E-5	180387.62159	0.11136	1218.034	1.98248E-13	4.64809E-13
	8200.76119	2.8674E-5	176057.83866	0.10869	1219.399	1.9284E-13	4.5458E-13
	8191.58478	2.82184E-5	173454.37272	0.10708	1220.765	1.89351E-13	4.4917E-13
	8182.43558	2.80139E-5	172389.75621	0.10642	1222.13	1.87559E-13	4.4809E-13
	8173.30012	2.7777E-5	171123.02317	0.10564	1223.496	1.85558E-13	4.45502E-13
	8164.17836	2.73903E-5	168929.11834	0.10429	1224.863	1.82567E-13	4.40377E-13
	8155.08359	2.65246E-5	163772.50762	0.1011	1226.229	1.76403E-13	4.28426E-13
	8146.00243	2.55409E-5	157874.81838	0.09746	1227.596	1.69483E-13	4.15196E-13
